# E (eV)   ldos(E)   pdos(E)
 -6.005  0.638E-04  0.638E-04
 -5.955  0.505E-03  0.505E-03
 -5.905  0.306E-02  0.306E-02
 -5.855  0.141E-01  0.141E-01
 -5.805  0.497E-01  0.497E-01
 -5.755  0.134E+00  0.134E+00
 -5.705  0.275E+00  0.275E+00
 -5.655  0.430E+00  0.430E+00
 -5.605  0.515E+00  0.515E+00
 -5.555  0.470E+00  0.470E+00
 -5.505  0.328E+00  0.328E+00
 -5.455  0.174E+00  0.174E+00
 -5.405  0.708E-01  0.708E-01
 -5.355  0.219E-01  0.219E-01
 -5.305  0.519E-02  0.519E-02
 -5.255  0.937E-03  0.937E-03
 -5.205  0.129E-03  0.129E-03
 -5.155  0.136E-04  0.136E-04
 -5.105  0.109E-05  0.109E-05
 -5.055  0.669E-07  0.669E-07
 -5.005  0.313E-08  0.313E-08
 -4.955  0.112E-09  0.112E-09
 -4.905  0.305E-11  0.305E-11
 -4.855  0.000E+00  0.000E+00
 -4.805  0.000E+00  0.000E+00
 -4.755  0.000E+00  0.000E+00
 -4.705  0.000E+00  0.000E+00
 -4.655  0.000E+00  0.000E+00
 -4.605  0.000E+00  0.000E+00
 -4.555  0.000E+00  0.000E+00
 -4.505  0.000E+00  0.000E+00
 -4.455  0.000E+00  0.000E+00
 -4.405  0.000E+00  0.000E+00
 -4.355  0.000E+00  0.000E+00
 -4.305  0.000E+00  0.000E+00
 -4.255  0.000E+00  0.000E+00
 -4.205  0.000E+00  0.000E+00
 -4.155  0.000E+00  0.000E+00
 -4.105  0.000E+00  0.000E+00
 -4.055  0.000E+00  0.000E+00
 -4.005  0.351E-11  0.351E-11
 -3.955  0.138E-09  0.138E-09
 -3.905  0.415E-08  0.415E-08
 -3.855  0.953E-07  0.953E-07
 -3.805  0.167E-05  0.167E-05
 -3.755  0.223E-04  0.223E-04
 -3.705  0.227E-03  0.227E-03
 -3.655  0.177E-02  0.177E-02
 -3.605  0.105E-01  0.105E-01
 -3.555  0.478E-01  0.478E-01
 -3.505  0.165E+00  0.165E+00
 -3.455  0.437E+00  0.437E+00
 -3.405  0.882E+00  0.882E+00
 -3.355  0.136E+01  0.136E+01
 -3.305  0.160E+01  0.160E+01
 -3.255  0.143E+01  0.143E+01
 -3.205  0.982E+00  0.982E+00
 -3.155  0.513E+00  0.513E+00
 -3.105  0.205E+00  0.205E+00
 -3.055  0.624E-01  0.624E-01
 -3.005  0.145E-01  0.145E-01
 -2.955  0.258E-02  0.258E-02
 -2.905  0.349E-03  0.349E-03
 -2.855  0.361E-04  0.361E-04
 -2.805  0.285E-05  0.285E-05
 -2.755  0.171E-06  0.171E-06
 -2.705  0.789E-08  0.789E-08
 -2.655  0.277E-09  0.277E-09
 -2.605  0.742E-11  0.742E-11
 -2.555  0.000E+00  0.000E+00
 -2.505  0.000E+00  0.000E+00
 -2.455  0.000E+00  0.000E+00
 -2.405  0.000E+00  0.000E+00
 -2.355  0.000E+00  0.000E+00
 -2.305  0.000E+00  0.000E+00
 -2.255  0.000E+00  0.000E+00
 -2.205  0.728E-11  0.728E-11
 -2.155  0.274E-09  0.274E-09
 -2.105  0.786E-08  0.786E-08
 -2.055  0.172E-06  0.172E-06
 -2.005  0.288E-05  0.288E-05
 -1.955  0.368E-04  0.368E-04
 -1.905  0.359E-03  0.359E-03
 -1.855  0.267E-02  0.267E-02
 -1.805  0.151E-01  0.151E-01
 -1.755  0.656E-01  0.656E-01
 -1.705  0.217E+00  0.217E+00
 -1.655  0.548E+00  0.548E+00
 -1.605  0.106E+01  0.106E+01
 -1.555  0.155E+01  0.155E+01
 -1.505  0.175E+01  0.175E+01
 -1.455  0.150E+01  0.150E+01
 -1.405  0.979E+00  0.979E+00
 -1.355  0.489E+00  0.489E+00
 -1.305  0.186E+00  0.186E+00
 -1.255  0.542E-01  0.542E-01
 -1.205  0.120E-01  0.120E-01
 -1.155  0.204E-02  0.204E-02
 -1.105  0.277E-03  0.277E-03
 -1.055  0.147E-03  0.147E-03
 -1.005  0.884E-03  0.884E-03
 -0.955  0.489E-02  0.489E-02
 -0.905  0.207E-01  0.207E-01
 -0.855  0.670E-01  0.670E-01
 -0.805  0.165E+00  0.165E+00
 -0.755  0.311E+00  0.311E+00
 -0.705  0.447E+00  0.447E+00
 -0.655  0.491E+00  0.491E+00
 -0.605  0.411E+00  0.411E+00
 -0.555  0.263E+00  0.263E+00
 -0.505  0.128E+00  0.128E+00
 -0.455  0.478E-01  0.478E-01
 -0.405  0.136E-01  0.136E-01
 -0.355  0.295E-02  0.295E-02
 -0.305  0.488E-03  0.488E-03
 -0.255  0.618E-04  0.618E-04
 -0.205  0.596E-05  0.596E-05
 -0.155  0.439E-06  0.439E-06
 -0.105  0.247E-07  0.247E-07
 -0.055  0.106E-08  0.106E-08
 -0.005  0.347E-10  0.347E-10
  0.045  0.868E-12  0.868E-12
  0.095  0.000E+00  0.000E+00
  0.145  0.000E+00  0.000E+00
  0.195  0.000E+00  0.000E+00
  0.245  0.000E+00  0.000E+00
  0.295  0.000E+00  0.000E+00
  0.345  0.000E+00  0.000E+00
  0.395  0.000E+00  0.000E+00
  0.445  0.000E+00  0.000E+00
  0.495  0.000E+00  0.000E+00
  0.545  0.000E+00  0.000E+00
  0.595  0.000E+00  0.000E+00
  0.645  0.000E+00  0.000E+00
  0.695  0.000E+00  0.000E+00
  0.745  0.000E+00  0.000E+00
  0.795  0.000E+00  0.000E+00
  0.845  0.000E+00  0.000E+00
  0.895  0.000E+00  0.000E+00
  0.945  0.000E+00  0.000E+00
  0.995  0.000E+00  0.000E+00
  1.045  0.000E+00  0.000E+00
  1.095  0.000E+00  0.000E+00
  1.145  0.000E+00  0.000E+00
  1.195  0.000E+00  0.000E+00
  1.245  0.000E+00  0.000E+00
  1.295  0.000E+00  0.000E+00
  1.345  0.000E+00  0.000E+00
  1.395  0.000E+00  0.000E+00
  1.445  0.000E+00  0.000E+00
  1.495  0.000E+00  0.000E+00
  1.545  0.000E+00  0.000E+00
  1.595  0.000E+00  0.000E+00
  1.645  0.000E+00  0.000E+00
  1.695  0.000E+00  0.000E+00
  1.745  0.000E+00  0.000E+00
  1.795  0.000E+00  0.000E+00
  1.845  0.000E+00  0.000E+00
  1.895  0.000E+00  0.000E+00
  1.945  0.000E+00  0.000E+00
  1.995  0.000E+00  0.000E+00
  2.045  0.000E+00  0.000E+00
  2.095  0.000E+00  0.000E+00
  2.145  0.000E+00  0.000E+00
  2.195  0.000E+00  0.000E+00
  2.245  0.000E+00  0.000E+00
  2.295  0.000E+00  0.000E+00
  2.345  0.000E+00  0.000E+00
  2.395  0.000E+00  0.000E+00
  2.445  0.000E+00  0.000E+00
  2.495  0.000E+00  0.000E+00
  2.545  0.000E+00  0.000E+00
  2.595  0.000E+00  0.000E+00
  2.645  0.000E+00  0.000E+00
  2.695  0.123E-23  0.123E-23
  2.745  0.519E-22  0.519E-22
  2.795  0.167E-20  0.167E-20
  2.845  0.410E-19  0.410E-19
  2.895  0.769E-18  0.769E-18
  2.945  0.110E-16  0.110E-16
  2.995  0.120E-15  0.120E-15
  3.045  0.100E-14  0.100E-14
  3.095  0.638E-14  0.638E-14
  3.145  0.310E-13  0.310E-13
  3.195  0.115E-12  0.115E-12
  3.245  0.325E-12  0.325E-12
  3.295  0.703E-12  0.703E-12
  3.345  0.116E-11  0.116E-11
  3.395  0.146E-11  0.146E-11
  3.445  0.140E-11  0.140E-11
  3.495  0.103E-11  0.103E-11
  3.545  0.576E-12  0.576E-12
  3.595  0.246E-12  0.246E-12
  3.645  0.802E-13  0.802E-13
  3.695  0.200E-13  0.200E-13
  3.745  0.379E-14  0.379E-14
  3.795  0.550E-15  0.550E-15
  3.845  0.609E-16  0.609E-16
  3.895  0.515E-17  0.515E-17
  3.945  0.332E-18  0.332E-18
  3.995  0.164E-19  0.164E-19
  4.045  0.615E-21  0.615E-21
  4.095  0.176E-22  0.176E-22
  4.145  0.000E+00  0.000E+00
  4.195  0.000E+00  0.000E+00
  4.245  0.000E+00  0.000E+00
  4.295  0.000E+00  0.000E+00
  4.345  0.169E-23  0.169E-23
  4.395  0.716E-22  0.716E-22
  4.445  0.231E-20  0.231E-20
  4.495  0.568E-19  0.568E-19
  4.545  0.107E-17  0.107E-17
  4.595  0.153E-16  0.153E-16
  4.645  0.168E-15  0.168E-15
  4.695  0.140E-14  0.140E-14
  4.745  0.893E-14  0.893E-14
  4.795  0.435E-13  0.435E-13
  4.845  0.162E-12  0.162E-12
  4.895  0.458E-12  0.458E-12
  4.945  0.992E-12  0.992E-12
  4.995  0.164E-11  0.164E-11
  5.045  0.207E-11  0.207E-11
  5.095  0.199E-11  0.199E-11
  5.145  0.146E-11  0.146E-11
  5.195  0.820E-12  0.820E-12
  5.245  0.351E-12  0.351E-12
  5.295  0.115E-12  0.115E-12
  5.345  0.286E-13  0.286E-13
  5.395  0.545E-14  0.545E-14
  5.445  0.793E-15  0.793E-15
  5.495  0.879E-16  0.879E-16
  5.545  0.745E-17  0.745E-17
  5.595  0.481E-18  0.481E-18
  5.645  0.239E-19  0.239E-19
  5.695  0.412E-20  0.412E-20
  5.745  0.635E-19  0.635E-19
  5.795  0.954E-18  0.954E-18
  5.845  0.109E-16  0.109E-16
  5.895  0.959E-16  0.959E-16
  5.945  0.641E-15  0.641E-15
  5.995  0.327E-14  0.327E-14
  6.045  0.128E-13  0.128E-13
  6.095  0.379E-13  0.379E-13
  6.145  0.861E-13  0.861E-13
  6.195  0.149E-12  0.149E-12
  6.245  0.187E-10  0.187E-10
  6.295  0.628E-09  0.628E-09
  6.345  0.162E-07  0.162E-07
  6.395  0.321E-06  0.321E-06
  6.445  0.484E-05  0.484E-05
  6.495  0.557E-04  0.557E-04
  6.545  0.489E-03  0.489E-03
  6.595  0.328E-02  0.328E-02
  6.645  0.168E-01  0.168E-01
  6.695  0.655E-01  0.655E-01
  6.745  0.195E+00  0.195E+00
  6.795  0.445E+00  0.445E+00
  6.845  0.773E+00  0.773E+00
  6.895  0.102E+01  0.102E+01
  6.945  0.104E+01  0.104E+01
  6.995  0.801E+00  0.801E+00
  7.045  0.472E+00  0.472E+00
  7.095  0.213E+00  0.213E+00
  7.145  0.730E-01  0.730E-01
  7.195  0.192E-01  0.192E-01
  7.245  0.386E-02  0.386E-02
  7.295  0.809E-03  0.809E-03
  7.345  0.178E-02  0.178E-02
  7.395  0.101E-01  0.101E-01
  7.445  0.451E-01  0.451E-01
  7.495  0.154E+00  0.154E+00
  7.545  0.403E+00  0.403E+00
  7.595  0.803E+00  0.803E+00
  7.645  0.122E+01  0.122E+01
  7.695  0.142E+01  0.142E+01
  7.745  0.126E+01  0.126E+01
  7.795  0.851E+00  0.851E+00
  7.845  0.439E+00  0.439E+00
  7.895  0.173E+00  0.173E+00
  7.945  0.521E-01  0.521E-01
  7.995  0.120E-01  0.120E-01
  8.045  0.210E-02  0.210E-02
  8.095  0.281E-03  0.281E-03
  8.145  0.287E-04  0.287E-04
  8.195  0.224E-05  0.224E-05
  8.245  0.133E-06  0.133E-06
  8.295  0.605E-08  0.605E-08
  8.345  0.210E-09  0.210E-09
  8.395  0.561E-11  0.561E-11
  8.445  0.286E-12  0.286E-12
  8.495  0.106E-11  0.106E-11
  8.545  0.300E-11  0.300E-11
  8.595  0.649E-11  0.649E-11
  8.645  0.107E-10  0.107E-10
  8.695  0.138E-10  0.138E-10
  8.745  0.247E-10  0.247E-10
  8.795  0.398E-09  0.398E-09
  8.845  0.985E-08  0.985E-08
  8.895  0.191E-06  0.191E-06
  8.945  0.282E-05  0.282E-05
  8.995  0.318E-04  0.318E-04
  9.045  0.273E-03  0.273E-03
  9.095  0.180E-02  0.180E-02
  9.145  0.901E-02  0.901E-02
  9.195  0.345E-01  0.345E-01
  9.245  0.101E+00  0.101E+00
  9.295  0.225E+00  0.225E+00
  9.345  0.383E+00  0.383E+00
  9.395  0.497E+00  0.497E+00
  9.445  0.493E+00  0.493E+00
  9.495  0.373E+00  0.373E+00
  9.545  0.216E+00  0.216E+00
  9.595  0.952E-01  0.952E-01
  9.645  0.321E-01  0.321E-01
  9.695  0.824E-02  0.824E-02
  9.745  0.162E-02  0.162E-02
  9.795  0.242E-03  0.242E-03
  9.845  0.277E-04  0.277E-04
  9.895  0.241E-05  0.241E-05
  9.945  0.161E-06  0.161E-06
  9.995  0.817E-08  0.817E-08
 10.045  0.317E-09  0.317E-09
 10.095  0.939E-11  0.939E-11
 10.145  0.398E-21  0.398E-21
 10.195  0.103E-22  0.103E-22
 10.245  0.000E+00  0.000E+00
 10.295  0.000E+00  0.000E+00
 10.345  0.000E+00  0.000E+00
 10.395  0.000E+00  0.000E+00
 10.445  0.000E+00  0.000E+00
 10.495  0.000E+00  0.000E+00
 10.545  0.000E+00  0.000E+00
 10.595  0.000E+00  0.000E+00
 10.645  0.000E+00  0.000E+00
 10.695  0.000E+00  0.000E+00
 10.745  0.000E+00  0.000E+00
 10.795  0.000E+00  0.000E+00
 10.845  0.000E+00  0.000E+00
 10.895  0.000E+00  0.000E+00
 10.945  0.000E+00  0.000E+00
 10.995  0.000E+00  0.000E+00
 11.045  0.000E+00  0.000E+00
 11.095  0.000E+00  0.000E+00
 11.145  0.000E+00  0.000E+00
 11.195  0.000E+00  0.000E+00
 11.245  0.000E+00  0.000E+00
 11.295  0.000E+00  0.000E+00
 11.345  0.000E+00  0.000E+00
 11.395  0.000E+00  0.000E+00
 11.445  0.000E+00  0.000E+00
 11.495  0.000E+00  0.000E+00
 11.545  0.000E+00  0.000E+00
 11.595  0.000E+00  0.000E+00
 11.645  0.000E+00  0.000E+00
 11.695  0.000E+00  0.000E+00
 11.745  0.000E+00  0.000E+00
 11.795  0.000E+00  0.000E+00
 11.845  0.000E+00  0.000E+00
 11.895  0.000E+00  0.000E+00
 11.945  0.000E+00  0.000E+00
 11.995  0.000E+00  0.000E+00
 12.045  0.000E+00  0.000E+00
 12.095  0.000E+00  0.000E+00
 12.145  0.000E+00  0.000E+00
 12.195  0.000E+00  0.000E+00
 12.245  0.000E+00  0.000E+00
 12.295  0.000E+00  0.000E+00
 12.345  0.000E+00  0.000E+00
 12.395  0.000E+00  0.000E+00
 12.445  0.000E+00  0.000E+00
 12.495  0.000E+00  0.000E+00
 12.545  0.000E+00  0.000E+00
 12.595  0.000E+00  0.000E+00
 12.645  0.000E+00  0.000E+00
 12.695  0.000E+00  0.000E+00
 12.745  0.000E+00  0.000E+00
 12.795  0.000E+00  0.000E+00
 12.845  0.000E+00  0.000E+00
 12.895  0.000E+00  0.000E+00
 12.945  0.000E+00  0.000E+00
 12.995  0.000E+00  0.000E+00
 13.045  0.000E+00  0.000E+00
 13.095  0.000E+00  0.000E+00
 13.145  0.000E+00  0.000E+00
 13.195  0.167E-12  0.167E-12
 13.245  0.660E-11  0.660E-11
 13.295  0.199E-09  0.199E-09
 13.345  0.457E-08  0.457E-08
 13.395  0.802E-07  0.802E-07
 13.445  0.107E-05  0.107E-05
 13.495  0.110E-04  0.110E-04
 13.545  0.857E-04  0.857E-04
 13.595  0.511E-03  0.511E-03
 13.645  0.232E-02  0.232E-02
 13.695  0.806E-02  0.806E-02
 13.745  0.213E-01  0.213E-01
 13.795  0.432E-01  0.432E-01
 13.845  0.666E-01  0.666E-01
 13.895  0.785E-01  0.785E-01
 13.945  0.706E-01  0.706E-01
 13.995  0.485E-01  0.485E-01
 14.045  0.254E-01  0.254E-01
 14.095  0.102E-01  0.102E-01
 14.145  0.310E-02  0.310E-02
 14.195  0.722E-03  0.722E-03
 14.245  0.128E-03  0.128E-03
 14.295  0.174E-04  0.174E-04
 14.345  0.181E-05  0.181E-05
 14.395  0.143E-06  0.143E-06
 14.445  0.863E-08  0.863E-08
 14.495  0.398E-09  0.398E-09
 14.545  0.140E-10  0.140E-10
 14.595  0.376E-12  0.376E-12
 14.645  0.000E+00  0.000E+00
 14.695  0.000E+00  0.000E+00
 14.745  0.000E+00  0.000E+00
 14.795  0.000E+00  0.000E+00
 14.845  0.000E+00  0.000E+00
 14.895  0.000E+00  0.000E+00
 14.945  0.000E+00  0.000E+00
 14.995  0.000E+00  0.000E+00
 15.045  0.000E+00  0.000E+00
 15.095  0.000E+00  0.000E+00
 15.145  0.000E+00  0.000E+00
 15.195  0.000E+00  0.000E+00
 15.245  0.000E+00  0.000E+00
 15.295  0.000E+00  0.000E+00
 15.345  0.000E+00  0.000E+00
 15.395  0.000E+00  0.000E+00
 15.445  0.138E-21  0.138E-21
 15.495  0.543E-20  0.543E-20
 15.545  0.164E-18  0.164E-18
 15.595  0.376E-17  0.376E-17
 15.645  0.659E-16  0.659E-16
 15.695  0.883E-15  0.883E-15
 15.745  0.903E-14  0.903E-14
 15.795  0.705E-13  0.705E-13
 15.845  0.420E-12  0.420E-12
 15.895  0.191E-11  0.191E-11
 15.945  0.662E-11  0.662E-11
 15.995  0.175E-10  0.175E-10
 16.045  0.355E-10  0.355E-10
 16.095  0.547E-10  0.547E-10
 16.145  0.645E-10  0.645E-10
 16.195  0.580E-10  0.580E-10
 16.245  0.398E-10  0.398E-10
 16.295  0.208E-10  0.208E-10
 16.345  0.833E-11  0.833E-11
 16.395  0.254E-11  0.254E-11
 16.445  0.592E-12  0.592E-12
 16.495  0.105E-12  0.105E-12
 16.545  0.143E-13  0.143E-13
 16.595  0.148E-14  0.148E-14
